 
 
 
 
 
 
 
                      Mon Jun 01 21:39:41 1992
 
 
 
            25 35.78  
            122 33.24 
# nquan = 6
# nvalues = 725                         
# units = metric                                                                
# name 0 = pr: pressure [db]                                                    
# name 1 = t068: temperature, IPTS-68 [deg C]                                   
# name 2 = c0S/m: conductivity [S/m]                                            
# name 3 = sal00: salinity, PSS-78 [PSU]
# name 4 = sigma-é00: density, sigma-theta [kg/m^3]
# name 5 = flag:  0.000e+00                                                     
# span 0 = 1.000, 725.000                         
# span 1 = 5.7148, 24.6132                        
# span 2 = 3.389532, 5.182437                     
# span 3 = 34.3182, 34.9643                       
# span 4 = 22.9874, 27.1231                       
# span 5 = 0.000e+00, 0.000e+00                   
# interval = decibars: 1                                                        
# start_time = Jun 01 1992 21:39:41                                             
# bad_flag = -9.990e-29                                                         
# sensor 0 = Frequency  0  temperature, 851                                     
# sensor 1 = Frequency  1  conductivity, 495, cpcor = -9.5700e-08               
# sensor 2 = Frequency  2  pressure, 31636                                      
# sensor 3 = Extrnl Volt  0  oxygen, current, 121                               
# sensor 4 = Extrnl Volt  1  oxygen, temperature, 121                           
# datcnv_date = Jan 05 2001 09:35:02, 4.244                                     
# datcnv_in = 318C7D.DAT SEASOFT.CON                                            
# datcnv_skipover = 0                                                           
# alignctd_date = Jan 05 2001 09:35:26, 4.244                                   
# alignctd_in = 318C7D.CNV                                                      
# alignctd_cond_advSecs = 0.073, 0.000                                          
# alignctd_temp_advSecs = 0.000, 0.000                                          
# alignctd_oxygen_current_advSecs = 0.000, 0.000                                
# alignctd_oxygen_temp_advSecs = 0.000, 0.000                                   
# alignctd_wetstar_advSecs = 0.000                                              
# celltm_date = Jan 05 2001 09:35:49, 4.244                                     
# celltm_in = 318C7D.CNV                                                        
# celltm_alpha = 0.0300, 0.0000                                                 
# celltm_tau = 7.0000, 0.0000                                                   
# celltm_temp_sensor_use_for_cond = primary,                                    
# filter_date = Jan 05 2001 09:36:28, 4.244                                     
# filter_in = 318C7D.CNV                                                        
# filter_low_pass_tc_A = 0.030                                                  
# filter_low_pass_tc_B = 0.150                                                  
# filter_low_pass_A_vars = c0S/m                                                
# filter_low_pass_B_vars = pr                                                   
# binavg_date = Jan 05 2001 09:37:18, 4.244                                     
# binavg_in = 318C7D.CNV                                                        
# binavg_bintype = Pressure Bins                                                
# binavg_binsize = 1.00                                                         
# binavg_excl_bad_scans = yes                                                   
# binavg_downcast_only = no                                                     
# binavg_skipover = 0                                                           
# binavg_surface_bin = no, min = 0.000, max = 0.000, value = 0.000              
# derive_date = Jan 05 2001 09:37:24, 4.244
# derive_in = 318C7D.CNV SEASOFT.CON
# file_type = ascii            
*END*                                                                           
      1.000    24.6132   5.182437    34.3749    22.9874  0.000e+00
      2.000    24.5491   5.179360    34.4007    23.0262  0.000e+00
      3.000    24.4605   5.170458    34.4018    23.0536  0.000e+00
      4.000    24.3108   5.156360    34.4109    23.1052  0.000e+00
      5.000    24.1507   5.141049    34.4188    23.1588  0.000e+00
      6.000    24.0077   5.127787    34.4289    23.2089  0.000e+00
      7.000    23.7803   5.111439    34.4811    23.3154  0.000e+00
      8.000    23.6968   5.100246    34.4607    23.3245  0.000e+00
      9.000    23.6003   5.089126    34.4509    23.3454  0.000e+00
     10.000    23.5231   5.081697    34.4541    23.3704  0.000e+00
     11.000    23.3659   5.066872    34.4633    23.4231  0.000e+00
     12.000    23.2292   5.054129    34.4722    23.4696  0.000e+00
     13.000    23.0913   5.041846    34.4857    23.5196  0.000e+00
     14.000    22.9970   5.033575    34.4958    23.5545  0.000e+00
     15.000    22.9370   5.027269    34.4940    23.5704  0.000e+00
     16.000    22.9021   5.024521    34.4999    23.5850  0.000e+00
     17.000    22.6878   5.004028    34.5101    23.6540  0.000e+00
     18.000    22.3988   4.977370    34.5313    23.7521  0.000e+00
     19.000    22.3963   4.976635    34.5272    23.7498  0.000e+00
     20.000    22.3719   4.972307    34.5125    23.7456  0.000e+00
     21.000    22.2912   4.965877    34.5260    23.7787  0.000e+00
     22.000    22.3405   4.966601    34.4922    23.7392  0.000e+00
     23.000    22.1705   4.961658    34.5884    23.8601  0.000e+00
     24.000    22.0364   4.942119    34.5418    23.8623  0.000e+00
     25.000    21.9536   4.927784    34.4949    23.8499  0.000e+00
     26.000    21.7741   4.913799    34.5278    23.9249  0.000e+00
     27.000    21.7617   4.915860    34.5537    23.9480  0.000e+00
     28.000    21.7861   4.915105    34.5278    23.9217  0.000e+00
     29.000    21.7735   4.915180    34.5382    23.9331  0.000e+00
     30.000    21.7868   4.916707    34.5392    23.9302  0.000e+00
     31.000    21.8497   4.923539    34.5424    23.9153  0.000e+00
     32.000    21.8493   4.922421    34.5336    23.9087  0.000e+00
     33.000    21.8321   4.921771    34.5419    23.9199  0.000e+00
     34.000    21.7262   4.913291    34.5595    23.9626  0.000e+00
     35.000    21.6689   4.902591    34.5205    23.9489  0.000e+00
     36.000    21.4826   4.883094    34.5152    23.9963  0.000e+00
     37.000    21.4101   4.880369    34.5515    24.0439  0.000e+00
     38.000    21.4079   4.879494    34.5460    24.0404  0.000e+00
     39.000    21.3278   4.869147    34.5278    24.0486  0.000e+00
     40.000    20.5404   4.804833    34.6501    24.3548  0.000e+00
     41.000    19.7585   4.764268    34.9643    24.8011  0.000e+00
     42.000    19.4971   4.701788    34.6660    24.6414  0.000e+00
     43.000    19.4297   4.692922    34.6482    24.6453  0.000e+00
     44.000    19.4377   4.693551    34.6465    24.6419  0.000e+00
     45.000    19.4536   4.693325    34.6310    24.6261  0.000e+00
     46.000    19.4083   4.688509    34.6284    24.6358  0.000e+00
     47.000    19.2300   4.673638    34.6530    24.7005  0.000e+00
     48.000    19.0493   4.659761    34.6878    24.7734  0.000e+00
     49.000    18.8911   4.640147    34.6559    24.7892  0.000e+00
     50.000    18.8742   4.638041    34.6521    24.7906  0.000e+00
     51.000    18.8692   4.636790    34.6454    24.7868  0.000e+00
     52.000    18.8267   4.634426    34.6608    24.8094  0.000e+00
     53.000    18.8342   4.634439    34.6543    24.8025  0.000e+00
     54.000    18.8391   4.633428    34.6413    24.7915  0.000e+00
     55.000    18.7209   4.620361    34.6304    24.8130  0.000e+00
     56.000    18.6788   4.616903    34.6363    24.8281  0.000e+00
     57.000    18.5900   4.608852    34.6428    24.8554  0.000e+00
     58.000    18.4713   4.589297    34.5773    24.8351  0.000e+00
     59.000    17.8678   4.546509    34.7239    25.0965  0.000e+00
     60.000    17.6758   4.522442    34.6808    25.1104  0.000e+00
     61.000    17.5686   4.507619    34.6445    25.1085  0.000e+00
     62.000    17.4741   4.500829    34.6663    25.1482  0.000e+00
     63.000    17.4449   4.495619    34.6459    25.1396  0.000e+00
     64.000    17.3629   4.489639    34.6641    25.1733  0.000e+00
     65.000    17.3364   4.487149    34.6649    25.1803  0.000e+00
     66.000    17.2304   4.477048    34.6679    25.2081  0.000e+00
     67.000    17.1514   4.470552    34.6790    25.2355  0.000e+00
     68.000    17.1340   4.467214    34.6646    25.2286  0.000e+00
     69.000    17.0738   4.462650    34.6763    25.2519  0.000e+00
     70.000    16.9783   4.454128    34.6840    25.2805  0.000e+00
     71.000    16.9498   4.451083    34.6816    25.2855  0.000e+00
     72.000    16.8296   4.432081    34.6189    25.2657  0.000e+00
     73.000    16.5804   4.412292    34.6604    25.3560  0.000e+00
     74.000    16.5080   4.407349    34.6793    25.3874  0.000e+00
     75.000    16.4957   4.406240    34.6798    25.3907  0.000e+00
     76.000    16.4890   4.405250    34.6765    25.3898  0.000e+00
     77.000    16.4807   4.403346    34.6666    25.3841  0.000e+00
     78.000    16.3577   4.385211    34.6129    25.3714  0.000e+00
     79.000    16.1038   4.364058    34.6461    25.4554  0.000e+00
     80.000    16.0264   4.357208    34.6524    25.4779  0.000e+00
     81.000    15.9483   4.350123    34.6572    25.4994  0.000e+00
     82.000    15.9069   4.344524    34.6430    25.4980  0.000e+00
     83.000    15.8461   4.338428    34.6414    25.5106  0.000e+00
     84.000    15.7666   4.328660    34.6233    25.5147  0.000e+00
     85.000    15.6919   4.322514    34.6334    25.5393  0.000e+00
     86.000    15.6455   4.316932    34.6237    25.5423  0.000e+00
     87.000    15.4616   4.296429    34.6005    25.5657  0.000e+00
     88.000    15.3478   4.287352    34.6185    25.6048  0.000e+00
     89.000    15.2972   4.283092    34.6242    25.6205  0.000e+00
     90.000    15.2737   4.280867    34.6244    25.6259  0.000e+00
     91.000    15.2531   4.278902    34.6244    25.6305  0.000e+00
     92.000    15.2272   4.276106    34.6216    25.6341  0.000e+00
     93.000    15.1856   4.272807    34.6281    25.6483  0.000e+00
     94.000    15.1542   4.267860    34.6106    25.6417  0.000e+00
     95.000    15.1100   4.265014    34.6234    25.6614  0.000e+00
     96.000    15.0927   4.263296    34.6228    25.6647  0.000e+00
     97.000    15.0694   4.260765    34.6200    25.6677  0.000e+00
     98.000    15.0449   4.258555    34.6212    25.6741  0.000e+00
     99.000    15.0228   4.256114    34.6182    25.6766  0.000e+00
    100.000    15.0029   4.254480    34.6205    25.6828  0.000e+00
    101.000    14.9964   4.253362    34.6157    25.6806  0.000e+00
    102.000    14.9743   4.251546    34.6184    25.6875  0.000e+00
    103.000    14.9641   4.250530    34.6178    25.6893  0.000e+00
    104.000    14.9515   4.249109    34.6156    25.6904  0.000e+00
    105.000    14.9368   4.247530    34.6138    25.6923  0.000e+00
    106.000    14.8893   4.241385    34.5996    25.6916  0.000e+00
    107.000    14.7771   4.230173    34.5964    25.7136  0.000e+00
    108.000    14.7075   4.223497    34.5967    25.7289  0.000e+00
    109.000    14.6519   4.217635    34.5921    25.7374  0.000e+00
    110.000    14.5940   4.212133    34.5928    25.7504  0.000e+00
    111.000    14.5795   4.211131    34.5961    25.7561  0.000e+00
    112.000    14.5732   4.210544    34.5959    25.7573  0.000e+00
    113.000    14.5592   4.209030    34.5941    25.7589  0.000e+00
    114.000    14.5462   4.207454    34.5908    25.7592  0.000e+00
    115.000    14.5286   4.205736    34.5903    25.7626  0.000e+00
    116.000    14.5190   4.205092    34.5925    25.7664  0.000e+00
    117.000    14.5001   4.203013    34.5898    25.7685  0.000e+00
    118.000    14.4754   4.200157    34.5852    25.7702  0.000e+00
    119.000    14.4365   4.196259    34.5836    25.7773  0.000e+00
    120.000    14.4154   4.194104    34.5822    25.7807  0.000e+00
    121.000    14.3920   4.191885    34.5822    25.7858  0.000e+00
    122.000    14.3710   4.190057    34.5837    25.7914  0.000e+00
    123.000    14.3635   4.189350    34.5835    25.7929  0.000e+00
    124.000    14.3594   4.188872    34.5823    25.7929  0.000e+00
    125.000    14.3510   4.187995    34.5813    25.7939  0.000e+00
    126.000    14.3322   4.185047    34.5705    25.7896  0.000e+00
    127.000    14.2749   4.179919    34.5739    25.8045  0.000e+00
    128.000    14.2418   4.176570    34.5722    25.8101  0.000e+00
    129.000    14.2155   4.174369    34.5750    25.8179  0.000e+00
    130.000    14.1968   4.172402    34.5731    25.8204  0.000e+00
    131.000    14.1840   4.171271    34.5737    25.8236  0.000e+00
    132.000    14.1788   4.170783    34.5734    25.8245  0.000e+00
    133.000    14.1772   4.170661    34.5733    25.8248  0.000e+00
    134.000    14.1724   4.170104    34.5720    25.8249  0.000e+00
    135.000    14.1604   4.168767    34.5700    25.8258  0.000e+00
    136.000    14.1453   4.167441    34.5708    25.8297  0.000e+00
    137.000    14.1380   4.166655    34.5696    25.8304  0.000e+00
    138.000    14.1314   4.166083    34.5699    25.8319  0.000e+00
    139.000    14.1298   4.166013    34.5702    25.8326  0.000e+00
    140.000    14.1296   4.166072    34.5705    25.8329  0.000e+00
    141.000    14.1270   4.165665    34.5687    25.8321  0.000e+00
    142.000    14.1201   4.165134    34.5695    25.8342  0.000e+00
    143.000    14.1131   4.164429    34.5689    25.8352  0.000e+00
    144.000    14.1064   4.163687    34.5676    25.8356  0.000e+00
    145.000    14.1012   4.163226    34.5676    25.8367  0.000e+00
    146.000    14.0980   4.162965    34.5676    25.8375  0.000e+00
    147.000    14.0939   4.162590    34.5674    25.8382  0.000e+00
    148.000    14.0920   4.162503    34.5679    25.8390  0.000e+00
    149.000    14.0905   4.162357    34.5675    25.8390  0.000e+00
    150.000    14.0673   4.159173    34.5583    25.8368  0.000e+00
    151.000    14.0269   4.155662    34.5615    25.8478  0.000e+00
    152.000    14.0115   4.153744    34.5571    25.8477  0.000e+00
    153.000    13.9687   4.149011    34.5511    25.8520  0.000e+00
    154.000    13.9138   4.144157    34.5548    25.8664  0.000e+00
    155.000    13.8932   4.142125    34.5540    25.8700  0.000e+00
    156.000    13.8756   4.140076    34.5503    25.8709  0.000e+00
    157.000    13.8311   4.134949    34.5421    25.8738  0.000e+00
    158.000    13.8004   4.132991    34.5510    25.8871  0.000e+00
    159.000    13.7878   4.131614    34.5491    25.8882  0.000e+00
    160.000    13.7781   4.130621    34.5481    25.8895  0.000e+00
    161.000    13.7706   4.129875    34.5475    25.8906  0.000e+00
    162.000    13.7609   4.128907    34.5467    25.8921  0.000e+00
    163.000    13.7441   4.127046    34.5441    25.8935  0.000e+00
    164.000    13.7076   4.123307    34.5416    25.8992  0.000e+00
    165.000    13.6895   4.120727    34.5333    25.8965  0.000e+00
    166.000    13.6599   4.118631    34.5399    25.9078  0.000e+00
    167.000    13.6486   4.117915    34.5430    25.9125  0.000e+00
    168.000    13.6414   4.116608    34.5368    25.9093  0.000e+00
    169.000    13.6158   4.114684    34.5415    25.9182  0.000e+00
    170.000    13.6164   4.114552    34.5393    25.9164  0.000e+00
    171.000    13.6131   4.114188    34.5384    25.9164  0.000e+00
    172.000    13.6083   4.113907    34.5397    25.9184  0.000e+00
    173.000    13.6111   4.114330    34.5408    25.9187  0.000e+00
    174.000    13.6105   4.114223    34.5399    25.9182  0.000e+00
    175.000    13.6190   4.115202    34.5410    25.9173  0.000e+00
    176.000    13.6221   4.114778    34.5338    25.9111  0.000e+00
    177.000    13.6056   4.113173    34.5332    25.9141  0.000e+00
    178.000    13.5824   4.111556    34.5386    25.9230  0.000e+00
    179.000    13.5814   4.111524    34.5388    25.9234  0.000e+00
    180.000    13.5827   4.111739    34.5392    25.9235  0.000e+00
    181.000    13.5784   4.111350    34.5390    25.9243  0.000e+00
    182.000    13.5685   4.110328    34.5379    25.9255  0.000e+00
    183.000    13.5695   4.110460    34.5379    25.9253  0.000e+00
    184.000    13.5689   4.110408    34.5375    25.9252  0.000e+00
    185.000    13.5674   4.110495    34.5393    25.9268  0.000e+00
    186.000    13.5691   4.110555    34.5379    25.9255  0.000e+00
    187.000    13.5643   4.110221    34.5387    25.9271  0.000e+00
    188.000    13.5707   4.110671    34.5367    25.9243  0.000e+00
    189.000    13.5710   4.110897    34.5381    25.9254  0.000e+00
    190.000    13.5678   4.111136    34.5429    25.9297  0.000e+00
    191.000    13.5644   4.110083    34.5356    25.9248  0.000e+00
    192.000    13.5570   4.109775    34.5390    25.9290  0.000e+00
    193.000    13.5565   4.109630    34.5377    25.9281  0.000e+00
    194.000    13.5562   4.109575    34.5370    25.9277  0.000e+00
    195.000    13.5588   4.109990    34.5382    25.9281  0.000e+00
    196.000    13.5609   4.110003    34.5360    25.9260  0.000e+00
    197.000    13.5605   4.110100    34.5368    25.9267  0.000e+00
    198.000    13.5579   4.109503    34.5332    25.9245  0.000e+00
    199.000    13.5374   4.106276    34.5210    25.9192  0.000e+00
    200.000    13.4918   4.103203    34.5329    25.9378  0.000e+00
    201.000    13.5014   4.104088    34.5321    25.9353  0.000e+00
    202.000    13.4851   4.102114    34.5278    25.9353  0.000e+00
    203.000    13.4794   4.102222    34.5336    25.9410  0.000e+00
    204.000    13.4824   4.102634    34.5344    25.9410  0.000e+00
    205.000    13.4774   4.102343    34.5357    25.9431  0.000e+00
    206.000    13.4801   4.102537    34.5347    25.9418  0.000e+00
    207.000    13.4812   4.102612    34.5340    25.9410  0.000e+00
    208.000    13.4738   4.101831    34.5329    25.9417  0.000e+00
    209.000    13.4729   4.102069    34.5356    25.9440  0.000e+00
    210.000    13.4606   4.099609    34.5231    25.9369  0.000e+00
    211.000    13.4455   4.098843    34.5292    25.9447  0.000e+00
    212.000    13.4320   4.098034    34.5333    25.9507  0.000e+00
    213.000    13.4206   4.096504    34.5288    25.9495  0.000e+00
    214.000    13.4228   4.097248    34.5334    25.9527  0.000e+00
    215.000    13.4201   4.096355    34.5270    25.9483  0.000e+00
    216.000    13.4110   4.095599    34.5277    25.9508  0.000e+00
    217.000    13.4003   4.095075    34.5321    25.9563  0.000e+00
    218.000    13.4010   4.094959    34.5299    25.9545  0.000e+00
    219.000    13.3876   4.092262    34.5162    25.9467  0.000e+00
    220.000    13.3011   4.083134    34.5080    25.9579  0.000e+00
    221.000    13.2200   4.077540    34.5282    25.9899  0.000e+00
    222.000    13.2219   4.077369    34.5245    25.9867  0.000e+00
    223.000    13.2346   4.078794    34.5260    25.9853  0.000e+00
    224.000    13.2360   4.079102    34.5272    25.9860  0.000e+00
    225.000    13.2427   4.078952    34.5193    25.9786  0.000e+00
    226.000    13.2374   4.079205    34.5261    25.9849  0.000e+00
    227.000    13.2492   4.079786    34.5205    25.9782  0.000e+00
    228.000    13.2018   4.074151    34.5098    25.9795  0.000e+00
    229.000    13.1787   4.072565    34.5153    25.9885  0.000e+00
    230.000    13.1595   4.071494    34.5222    25.9977  0.000e+00
    231.000    13.1256   4.067627    34.5159    25.9996  0.000e+00
    232.000    13.1217   4.067337    34.5163    26.0007  0.000e+00
    233.000    13.0289   4.054499    34.4783    25.9899  0.000e+00
    234.000    12.8655   4.043312    34.5201    26.0549  0.000e+00
    235.000    12.8186   4.037329    34.5054    26.0528  0.000e+00
    236.000    12.7862   4.034157    34.5043    26.0583  0.000e+00
